BeginWaveLength:1200nm
StopWaveLength:1700nm
DATA:
-3.88518405E+001,-4.10829839E+001,-4.16645895E+001,-4.02489113E+001,-4.12026196E+001,-4.09202130E+001,-4.03825960E+001,-4.18844221E+001,-4.19220350E+001,-4.25773433E+001,-4.23363065E+001,-4.13702404E+001,-4.25406601E+001,-4.17516506E+001,-4.09305390E+001,-4.25773433E+001,-3.97760704E+001,-4.21964146E+001,-4.24114644E+001,-4.22125405E+001,-3.96783570E+001,-4.28222620E+001,-4.21754277E+001,-4.17895403E+001,-4.09368732E+001,-4.07696210E+001,-4.10629261E+001,-4.19134279E+001,-4.11777573E+001,-4.26910297E+001,-3.95937912E+001,-3.97673454E+001,-3.99107614E+001,-4.06872525E+001,-4.05488398E+001,-4.13763147E+001,-4.01905148E+001,-4.14596380E+001,-3.92549953E+001,-4.02913171E+001,-4.36552671E+001,-4.30571364E+001,-4.16349600E+001,-4.16077500E+001,-4.06558465E+001,-4.11313273E+001,-4.12881407E+001,-4.16680886E+001,-4.00947832E+001,-4.16608435E+001,-3.95424513E+001,-3.99435840E+001,-4.14410886E+001,-4.12276251E+001,-3.91148357E+001,-4.18055117E+001,-4.01699237E+001,-4.09947290E+001,-4.01474914E+001,-3.94270561E+001,-3.92695079E+001,-3.95055185E+001,-4.02115616E+001,-4.06836631E+001,-4.06481293E+001,-3.93729197E+001,-4.03492484E+001,-4.14579701E+001,-4.16543581E+001,-3.96161815E+001,-4.02197940E+001,-3.87533474E+001,-4.04887747E+001,-4.08267187E+001,-3.84979889E+001,-4.00106657E+001,-3.96540718E+001,-4.08693639E+001,-3.80895430E+001,-3.91606337E+001,-3.93785245E+001,-3.94809691E+001,-3.81739392E+001,-3.84610316E+001,-3.79688257E+001,-3.83338706E+001,-3.90857655E+001,-3.83781891E+001,-3.94912569E+001,-3.83795960E+001,-3.87587184E+001,-3.78376890E+001,-3.84557775E+001,-3.95286793E+001,-3.85618409E+001,-3.71138228E+001,-3.74895425E+001,-3.48427351E+001,-3.38308430E+001,-3.48203563E+001